# curve data: Susi_R813.dat
# TITLE=FILTER 813  Transmission Curve;DTITL= 2.0;LABX=Lambda [nm];LABY=Transmission;DLABL= 1.0;NGEOM;USER;GRID;XSPACE=0
3000.00000 0.000000e+00
5405.00000 9.000000e-05
5415.00000 1.900000e-04
5425.00000 3.600000e-04
5430.00000 4.900000e-04
5435.00000 7.000000e-04
5440.00000 9.600000e-04
5445.00000 1.320000e-03
5450.00000 1.820000e-03
5455.00000 2.470000e-03
5460.00000 3.320000e-03
5465.00000 4.430000e-03
5470.00000 5.690000e-03
5475.00000 7.330000e-03
5480.00000 9.390000e-03
5485.00000 1.205000e-02
5490.00000 1.540000e-02
5495.00000 1.950000e-02
5500.00000 2.446000e-02
5505.00000 3.038000e-02
5510.00000 3.720000e-02
5515.00000 4.515000e-02
5520.00000 5.436000e-02
5525.00000 6.476000e-02
5530.00000 7.668000e-02
5535.00000 8.989000e-02
5540.00000 1.042600e-01
5545.00000 1.197600e-01
5550.00000 1.363700e-01
5555.00000 1.540500e-01
5560.00000 1.727300e-01
5565.00000 1.920900e-01
5570.00000 2.121000e-01
5575.00000 2.331400e-01
5580.00000 2.545700e-01
5585.00000 2.762600e-01
5590.00000 2.981600e-01
5595.00000 3.204400e-01
5600.00000 3.426700e-01
5605.00000 3.643200e-01
5610.00000 3.863200e-01
5615.00000 4.076900e-01
5620.00000 4.287800e-01
5625.00000 4.495700e-01
5630.00000 4.698500e-01
5635.00000 4.894000e-01
5640.00000 5.085700e-01
5645.00000 5.269000e-01
5650.00000 5.449500e-01
5655.00000 5.620900e-01
5660.00000 5.790300e-01
5665.00000 5.950300e-01
5670.00000 6.101900e-01
5675.00000 6.245900e-01
5680.00000 6.384600e-01
5685.00000 6.505300e-01
5690.00000 6.623200e-01
5695.00000 6.740800e-01
5700.00000 6.855100e-01
5705.00000 6.962700e-01
5710.00000 7.071900e-01
5715.00000 7.174400e-01
5720.00000 7.269600e-01
5725.00000 7.358300e-01
5730.00000 7.446100e-01
5735.00000 7.530100e-01
5740.00000 7.606100e-01
5745.00000 7.681400e-01
5750.00000 7.748000e-01
5755.00000 7.816900e-01
5760.00000 7.877900e-01
5765.00000 7.935800e-01
5770.00000 7.987200e-01
5775.00000 8.037700e-01
5780.00000 8.084400e-01
5785.00000 8.132000e-01
5790.00000 8.173100e-01
5795.00000 8.213900e-01
5800.00000 8.249500e-01
5805.00000 8.283400e-01
5810.00000 8.315000e-01
5815.00000 8.348200e-01
5820.00000 8.374300e-01
5825.00000 8.403100e-01
5830.00000 8.428400e-01
5835.00000 8.451400e-01
5840.00000 8.471800e-01
5845.00000 8.496200e-01
5850.00000 8.514300e-01
5855.00000 8.531500e-01
5860.00000 8.547300e-01
5865.00000 8.563300e-01
5870.00000 8.579200e-01
5875.00000 8.590300e-01
5880.00000 8.603000e-01
5885.00000 8.614600e-01
5890.00000 8.622100e-01
5895.00000 8.633100e-01
5900.00000 8.640800e-01
5905.00000 8.644500e-01
5910.00000 8.652600e-01
5915.00000 8.660400e-01
5920.00000 8.663800e-01
5925.00000 8.670100e-01
5930.00000 8.677100e-01
5940.00000 8.680700e-01
5945.00000 8.683400e-01
5955.00000 8.685700e-01
5965.00000 8.688400e-01
5970.00000 8.690000e-01
5985.00000 8.686800e-01
5995.00000 8.683100e-01
6000.00000 8.679200e-01
6005.00000 8.673800e-01
6010.00000 8.671800e-01
6015.00000 8.666400e-01
6020.00000 8.664100e-01
6025.00000 8.661200e-01
6030.00000 8.656100e-01
6035.00000 8.649900e-01
6040.00000 8.643900e-01
6045.00000 8.639600e-01
6050.00000 8.633000e-01
6055.00000 8.625200e-01
6060.00000 8.620200e-01
6065.00000 8.615100e-01
6070.00000 8.606800e-01
6075.00000 8.600800e-01
6080.00000 8.593700e-01
6085.00000 8.584400e-01
6090.00000 8.576800e-01
6095.00000 8.569700e-01
6100.00000 8.561800e-01
6105.00000 8.551400e-01
6110.00000 8.542000e-01
6115.00000 8.534400e-01
6120.00000 8.528500e-01
6125.00000 8.520100e-01
6130.00000 8.512400e-01
6135.00000 8.500700e-01
6140.00000 8.490600e-01
6145.00000 8.480000e-01
6150.00000 8.469100e-01
6155.00000 8.460000e-01
6160.00000 8.449400e-01
6165.00000 8.438700e-01
6170.00000 8.425700e-01
6175.00000 8.412400e-01
6180.00000 8.402000e-01
6185.00000 8.394600e-01
6190.00000 8.380300e-01
6195.00000 8.367700e-01
6200.00000 8.355200e-01
6205.00000 8.342500e-01
6210.00000 8.328500e-01
6215.00000 8.317000e-01
6220.00000 8.302800e-01
6225.00000 8.292000e-01
6230.00000 8.278200e-01
6235.00000 8.265100e-01
6240.00000 8.252400e-01
6245.00000 8.237400e-01
6250.00000 8.223700e-01
6255.00000 8.211900e-01
6260.00000 8.197100e-01
6265.00000 8.184800e-01
6270.00000 8.171200e-01
6275.00000 8.155200e-01
6280.00000 8.143400e-01
6285.00000 8.128000e-01
6290.00000 8.116500e-01
6295.00000 8.102500e-01
6300.00000 8.085700e-01
6305.00000 8.073600e-01
6310.00000 8.057600e-01
6315.00000 8.044200e-01
6320.00000 8.026900e-01
6325.00000 8.013900e-01
6330.00000 7.999200e-01
6335.00000 7.985500e-01
6340.00000 7.968900e-01
6345.00000 7.953300e-01
6350.00000 7.940700e-01
6355.00000 7.923600e-01
6360.00000 7.906400e-01
6365.00000 7.892200e-01
6370.00000 7.873500e-01
6375.00000 7.861100e-01
6380.00000 7.844400e-01
6385.00000 7.827500e-01
6390.00000 7.811100e-01
6395.00000 7.792900e-01
6400.00000 7.774900e-01
6405.00000 7.758100e-01
6410.00000 7.740500e-01
6415.00000 7.725000e-01
6420.00000 7.706900e-01
6425.00000 7.690900e-01
6430.00000 7.672400e-01
6435.00000 7.656500e-01
6440.00000 7.639500e-01
6445.00000 7.621400e-01
6450.00000 7.603400e-01
6455.00000 7.585400e-01
6460.00000 7.568400e-01
6465.00000 7.549900e-01
6470.00000 7.534900e-01
6475.00000 7.518300e-01
6480.00000 7.498100e-01
6485.00000 7.482700e-01
6490.00000 7.462400e-01
6495.00000 7.448000e-01
6500.00000 7.427100e-01
6505.00000 7.409900e-01
6510.00000 7.392600e-01
6515.00000 7.373600e-01
6520.00000 7.357300e-01
6525.00000 7.337400e-01
6530.00000 7.318600e-01
6535.00000 7.298700e-01
6540.00000 7.281800e-01
6545.00000 7.266200e-01
6550.00000 7.252200e-01
6555.00000 7.233600e-01
6560.00000 7.213800e-01
6565.00000 7.196100e-01
6570.00000 7.177500e-01
6575.00000 7.159700e-01
6580.00000 7.141600e-01
6585.00000 7.121100e-01
6590.00000 7.101300e-01
6595.00000 7.084100e-01
6600.00000 7.063700e-01
6605.00000 7.045500e-01
6610.00000 7.026400e-01
6615.00000 7.008300e-01
6620.00000 6.985200e-01
6625.00000 6.966100e-01
6630.00000 6.947500e-01
6635.00000 6.929000e-01
6640.00000 6.909100e-01
6645.00000 6.888500e-01
6650.00000 6.869100e-01
6655.00000 6.849900e-01
6660.00000 6.829800e-01
6665.00000 6.811000e-01
6670.00000 6.790700e-01
6675.00000 6.771700e-01
6680.00000 6.753200e-01
6685.00000 6.732100e-01
6690.00000 6.711300e-01
6695.00000 6.692300e-01
6700.00000 6.671200e-01
6705.00000 6.654600e-01
6710.00000 6.632300e-01
6715.00000 6.611500e-01
6720.00000 6.591900e-01
6725.00000 6.570600e-01
6730.00000 6.549200e-01
6735.00000 6.530400e-01
6740.00000 6.511000e-01
6745.00000 6.488400e-01
6750.00000 6.467700e-01
6755.00000 6.444100e-01
6760.00000 6.425800e-01
6765.00000 6.406600e-01
6770.00000 6.387600e-01
6775.00000 6.366400e-01
6780.00000 6.346100e-01
6785.00000 6.322500e-01
6790.00000 6.298500e-01
6795.00000 6.275500e-01
6800.00000 6.254300e-01
6805.00000 6.232200e-01
6810.00000 6.208900e-01
6815.00000 6.185900e-01
6820.00000 6.165300e-01
6825.00000 6.139700e-01
6830.00000 6.116400e-01
6835.00000 6.092300e-01
6840.00000 6.068100e-01
6845.00000 6.045200e-01
6850.00000 6.021700e-01
6855.00000 5.998500e-01
6860.00000 5.976300e-01
6865.00000 5.951200e-01
6870.00000 5.928400e-01
6875.00000 5.904900e-01
6880.00000 5.881500e-01
6885.00000 5.859100e-01
6890.00000 5.837300e-01
6895.00000 5.812600e-01
6900.00000 5.791100e-01
6905.00000 5.766700e-01
6910.00000 5.742800e-01
6915.00000 5.719300e-01
6920.00000 5.696100e-01
6925.00000 5.671600e-01
6930.00000 5.647400e-01
6935.00000 5.623900e-01
6940.00000 5.601600e-01
6945.00000 5.578600e-01
6950.00000 5.555300e-01
6955.00000 5.531500e-01
6960.00000 5.506700e-01
6965.00000 5.482200e-01
6970.00000 5.458400e-01
6975.00000 5.438000e-01
6980.00000 5.415000e-01
6985.00000 5.393600e-01
6990.00000 5.373900e-01
6995.00000 5.351000e-01
7000.00000 5.324700e-01
7005.00000 5.299400e-01
7010.00000 5.274800e-01
7015.00000 5.251100e-01
7020.00000 5.227600e-01
7025.00000 5.204400e-01
7030.00000 5.179300e-01
7035.00000 5.156600e-01
7040.00000 5.132300e-01
7045.00000 5.108800e-01
7050.00000 5.082700e-01
7055.00000 5.057300e-01
7060.00000 5.035100e-01
7065.00000 5.011100e-01
7070.00000 4.985000e-01
7075.00000 4.963000e-01
7080.00000 4.941100e-01
7085.00000 4.916800e-01
7090.00000 4.893000e-01
7095.00000 4.870800e-01
7100.00000 4.847400e-01
7105.00000 4.822300e-01
7110.00000 4.798500e-01
7115.00000 4.774500e-01
7120.00000 4.752500e-01
7125.00000 4.730200e-01
7130.00000 4.708900e-01
7135.00000 4.684400e-01
7140.00000 4.661600e-01
7145.00000 4.637600e-01
7150.00000 4.613300e-01
7155.00000 4.590000e-01
7160.00000 4.568300e-01
7165.00000 4.543600e-01
7170.00000 4.523000e-01
7175.00000 4.500700e-01
7180.00000 4.477400e-01
7185.00000 4.455800e-01
7190.00000 4.433100e-01
7195.00000 4.410900e-01
7200.00000 4.389300e-01
7205.00000 4.368400e-01
7210.00000 4.346600e-01
7215.00000 4.321500e-01
7220.00000 4.300700e-01
7225.00000 4.280000e-01
7230.00000 4.256800e-01
7235.00000 4.234300e-01
7240.00000 4.211200e-01
7245.00000 4.188600e-01
7250.00000 4.165000e-01
7255.00000 4.143400e-01
7260.00000 4.118600e-01
7265.00000 4.094800e-01
7270.00000 4.071800e-01
7275.00000 4.047800e-01
7280.00000 4.026800e-01
7285.00000 4.003400e-01
7290.00000 3.981600e-01
7295.00000 3.959600e-01
7300.00000 3.938100e-01
7305.00000 3.916600e-01
7310.00000 3.892800e-01
7315.00000 3.870100e-01
7320.00000 3.848700e-01
7325.00000 3.827100e-01
7330.00000 3.806300e-01
7335.00000 3.785600e-01
7340.00000 3.764700e-01
7345.00000 3.743100e-01
7350.00000 3.722400e-01
7355.00000 3.700700e-01
7360.00000 3.676700e-01
7365.00000 3.656000e-01
7370.00000 3.633600e-01
7375.00000 3.612700e-01
7380.00000 3.591400e-01
7385.00000 3.569700e-01
7390.00000 3.549100e-01
7395.00000 3.528300e-01
7400.00000 3.506700e-01
7405.00000 3.485400e-01
7410.00000 3.467300e-01
7415.00000 3.446700e-01
7420.00000 3.427600e-01
7425.00000 3.406700e-01
7430.00000 3.384700e-01
7435.00000 3.364700e-01
7440.00000 3.344100e-01
7445.00000 3.323600e-01
7450.00000 3.301900e-01
7455.00000 3.280800e-01
7460.00000 3.258700e-01
7465.00000 3.236400e-01
7470.00000 3.214500e-01
7475.00000 3.195200e-01
7480.00000 3.173400e-01
7485.00000 3.153300e-01
7490.00000 3.133200e-01
7495.00000 3.111300e-01
7500.00000 3.089400e-01
7505.00000 3.068700e-01
7510.00000 3.048600e-01
7515.00000 3.027600e-01
7520.00000 3.008100e-01
7525.00000 2.988300e-01
7530.00000 2.968600e-01
7535.00000 2.947300e-01
7540.00000 2.928200e-01
7545.00000 2.908700e-01
7550.00000 2.888400e-01
7555.00000 2.868400e-01
7560.00000 2.848600e-01
7565.00000 2.830300e-01
7570.00000 2.810900e-01
7575.00000 2.791900e-01
7580.00000 2.771800e-01
7585.00000 2.752900e-01
7590.00000 2.731600e-01
7595.00000 2.712700e-01
7600.00000 2.693500e-01
7605.00000 2.675500e-01
7610.00000 2.656800e-01
7615.00000 2.637200e-01
7620.00000 2.618900e-01
7625.00000 2.601700e-01
7630.00000 2.583300e-01
7635.00000 2.567300e-01
7640.00000 2.548200e-01
7645.00000 2.528800e-01
7650.00000 2.510500e-01
7655.00000 2.492000e-01
7660.00000 2.474100e-01
7665.00000 2.455300e-01
7670.00000 2.437200e-01
7675.00000 2.419700e-01
7680.00000 2.400600e-01
7685.00000 2.380300e-01
7690.00000 2.362200e-01
7695.00000 2.343100e-01
7700.00000 2.326600e-01
7705.00000 2.308700e-01
7710.00000 2.289700e-01
7715.00000 2.272000e-01
7720.00000 2.254400e-01
7725.00000 2.237100e-01
7730.00000 2.219200e-01
7735.00000 2.202500e-01
7740.00000 2.184500e-01
7745.00000 2.167500e-01
7750.00000 2.152600e-01
7755.00000 2.135200e-01
7760.00000 2.118100e-01
7765.00000 2.101200e-01
7770.00000 2.085700e-01
7775.00000 2.068800e-01
7780.00000 2.051200e-01
7785.00000 2.037000e-01
7790.00000 2.019900e-01
7795.00000 2.004600e-01
7800.00000 1.987800e-01
7805.00000 1.970800e-01
7810.00000 1.955300e-01
7815.00000 1.938400e-01
7820.00000 1.922500e-01
7825.00000 1.907900e-01
7830.00000 1.892400e-01
7835.00000 1.877600e-01
7840.00000 1.863200e-01
7845.00000 1.849100e-01
7850.00000 1.834000e-01
7855.00000 1.819900e-01
7860.00000 1.804700e-01
7865.00000 1.789500e-01
7870.00000 1.775000e-01
7875.00000 1.760700e-01
7880.00000 1.744700e-01
7885.00000 1.729500e-01
7890.00000 1.716600e-01
7895.00000 1.700400e-01
7900.00000 1.686400e-01
7905.00000 1.669900e-01
7910.00000 1.655200e-01
7915.00000 1.642700e-01
7920.00000 1.627600e-01
7925.00000 1.614400e-01
7930.00000 1.598200e-01
7935.00000 1.585400e-01
7940.00000 1.569700e-01
7945.00000 1.555300e-01
7950.00000 1.542900e-01
7955.00000 1.528900e-01
7960.00000 1.515400e-01
7965.00000 1.502100e-01
7970.00000 1.489600e-01
7975.00000 1.475900e-01
7980.00000 1.464100e-01
7985.00000 1.451000e-01
7990.00000 1.437300e-01
7995.00000 1.411400e-01
8000.00000 1.385500e-01
8005.00000 1.373800e-01
8010.00000 1.362000e-01
8015.00000 1.350300e-01
8020.00000 1.338700e-01
8025.00000 1.327100e-01
8030.00000 1.315600e-01
8035.00000 1.304200e-01
8040.00000 1.292900e-01
8045.00000 1.281600e-01
8050.00000 1.270300e-01
8055.00000 1.259100e-01
8060.00000 1.247800e-01
8065.00000 1.236800e-01
8070.00000 1.225900e-01
8075.00000 1.215100e-01
8080.00000 1.204300e-01
8085.00000 1.193300e-01
8090.00000 1.182300e-01
8095.00000 1.171800e-01
8100.00000 1.161300e-01
8105.00000 1.150700e-01
8110.00000 1.140000e-01
8115.00000 1.129600e-01
8120.00000 1.119200e-01
8125.00000 1.108900e-01
8130.00000 1.098700e-01
8135.00000 1.088600e-01
8140.00000 1.078500e-01
8145.00000 1.069300e-01
8150.00000 1.060200e-01
8155.00000 1.050900e-01
8160.00000 1.041500e-01
8165.00000 1.032500e-01
8170.00000 1.023400e-01
8175.00000 1.014200e-01
8180.00000 1.005000e-01
8185.00000 9.957000e-02
8190.00000 9.864000e-02
8195.00000 9.771000e-02
8200.00000 9.678000e-02
8205.00000 9.586000e-02
8210.00000 9.494000e-02
8215.00000 9.405000e-02
8220.00000 9.316000e-02
8225.00000 9.221000e-02
8230.00000 9.127000e-02
8235.00000 9.038000e-02
8240.00000 8.949000e-02
8245.00000 8.859000e-02
8250.00000 8.768000e-02
8255.00000 8.680000e-02
8260.00000 8.591000e-02
8265.00000 8.505000e-02
8270.00000 8.419000e-02
8275.00000 8.334000e-02
8280.00000 8.249000e-02
8285.00000 8.165000e-02
8290.00000 8.081000e-02
8295.00000 7.999000e-02
8300.00000 7.917000e-02
8305.00000 7.839000e-02
8310.00000 7.762000e-02
8315.00000 7.684000e-02
8320.00000 7.606000e-02
8325.00000 7.527000e-02
8330.00000 7.449000e-02
8335.00000 7.375000e-02
8340.00000 7.302000e-02
8345.00000 7.228000e-02
8350.00000 7.153000e-02
8355.00000 7.081000e-02
8360.00000 7.008000e-02
8365.00000 6.935000e-02
8370.00000 6.862000e-02
8375.00000 6.791000e-02
8380.00000 6.720000e-02
8385.00000 6.649000e-02
8390.00000 6.579000e-02
8395.00000 6.510000e-02
8400.00000 6.440000e-02
8405.00000 6.374000e-02
8410.00000 6.308000e-02
8415.00000 6.241000e-02
8420.00000 6.175000e-02
8425.00000 6.110000e-02
8430.00000 6.046000e-02
8435.00000 5.980000e-02
8440.00000 5.915000e-02
8445.00000 5.854000e-02
8450.00000 5.793000e-02
8455.00000 5.732000e-02
8460.00000 5.671000e-02
8465.00000 5.613000e-02
8470.00000 5.554000e-02
8475.00000 5.495000e-02
8480.00000 5.437000e-02
8485.00000 5.379000e-02
8490.00000 5.321000e-02
8495.00000 5.266000e-02
8500.00000 5.211000e-02
8505.00000 5.157000e-02
8510.00000 5.103000e-02
8515.00000 5.047000e-02
8520.00000 4.992000e-02
8525.00000 4.939000e-02
8530.00000 4.887000e-02
8535.00000 4.835000e-02
8540.00000 4.782000e-02
8545.00000 4.731000e-02
8550.00000 4.680000e-02
8555.00000 4.630000e-02
8560.00000 4.580000e-02
8565.00000 4.532000e-02
8570.00000 4.483000e-02
8575.00000 4.435000e-02
8580.00000 4.387000e-02
8585.00000 4.340000e-02
8590.00000 4.292000e-02
8595.00000 4.248000e-02
8600.00000 4.205000e-02
8605.00000 4.157000e-02
8610.00000 4.110000e-02
8615.00000 4.068000e-02
8620.00000 4.026000e-02
8625.00000 3.981000e-02
8630.00000 3.937000e-02
8635.00000 3.894000e-02
8640.00000 3.850000e-02
8645.00000 3.810000e-02
8650.00000 3.769000e-02
8655.00000 3.727000e-02
8660.00000 3.686000e-02
8665.00000 3.646000e-02
8670.00000 3.606000e-02
8675.00000 3.567000e-02
8680.00000 3.527000e-02
8685.00000 3.489000e-02
8690.00000 3.452000e-02
8695.00000 3.414000e-02
8700.00000 3.376000e-02
8705.00000 3.339000e-02
8710.00000 3.302000e-02
8715.00000 3.267000e-02
8720.00000 3.232000e-02
8725.00000 3.197000e-02
8730.00000 3.161000e-02
8735.00000 3.128000e-02
8740.00000 3.094000e-02
8745.00000 3.060000e-02
8750.00000 3.025000e-02
8755.00000 2.994000e-02
8760.00000 2.962000e-02
8765.00000 2.929000e-02
8770.00000 2.896000e-02
8775.00000 2.865000e-02
8780.00000 2.834000e-02
8785.00000 2.804000e-02
8790.00000 2.774000e-02
8795.00000 2.743000e-02
8800.00000 2.713000e-02
8805.00000 2.683000e-02
8810.00000 2.653000e-02
8815.00000 2.624000e-02
8820.00000 2.595000e-02
8825.00000 2.567000e-02
8830.00000 2.539000e-02
8835.00000 2.512000e-02
8840.00000 2.484000e-02
8845.00000 2.457000e-02
8850.00000 2.430000e-02
8855.00000 2.404000e-02
8860.00000 2.378000e-02
8865.00000 2.351000e-02
8870.00000 2.324000e-02
8875.00000 2.300000e-02
8880.00000 2.275000e-02
8885.00000 2.251000e-02
8890.00000 2.227000e-02
8895.00000 2.202000e-02
8900.00000 2.177000e-02
8905.00000 2.154000e-02
8910.00000 2.131000e-02
8915.00000 2.108000e-02
8920.00000 2.084000e-02
8925.00000 2.061000e-02
8930.00000 2.037000e-02
8935.00000 2.016000e-02
8940.00000 1.994000e-02
8945.00000 1.972000e-02
8950.00000 1.951000e-02
8955.00000 1.930000e-02
8960.00000 1.910000e-02
8965.00000 1.888000e-02
8970.00000 1.866000e-02
8975.00000 1.846000e-02
8980.00000 1.826000e-02
8985.00000 1.806000e-02
8990.00000 1.786000e-02
8995.00000 1.767000e-02
9000.00000 1.748000e-02
9005.00000 1.730000e-02
9010.00000 1.711000e-02
9015.00000 1.694000e-02
9020.00000 1.676000e-02
9025.00000 1.660000e-02
9030.00000 1.644000e-02
9035.00000 1.626000e-02
9040.00000 1.609000e-02
9045.00000 1.593000e-02
9050.00000 1.576000e-02
9055.00000 1.559000e-02
9060.00000 1.542000e-02
9065.00000 1.526000e-02
9070.00000 1.510000e-02
9075.00000 1.494000e-02
9080.00000 1.478000e-02
9085.00000 1.462000e-02
9090.00000 1.445000e-02
9095.00000 1.429000e-02
9100.00000 1.414000e-02
9105.00000 1.398000e-02
9110.00000 1.382000e-02
9115.00000 1.367000e-02
9120.00000 1.352000e-02
9125.00000 1.337000e-02
9130.00000 1.322000e-02
9135.00000 1.307000e-02
9140.00000 1.292000e-02
9145.00000 1.278000e-02
9150.00000 1.263000e-02
9155.00000 1.251000e-02
9160.00000 1.238000e-02
9165.00000 1.224000e-02
9170.00000 1.210000e-02
9175.00000 1.197000e-02
9180.00000 1.184000e-02
9185.00000 1.171000e-02
9190.00000 1.158000e-02
9195.00000 1.145000e-02
9200.00000 1.133000e-02
9205.00000 1.121000e-02
9210.00000 1.109000e-02
9215.00000 1.096000e-02
9220.00000 1.084000e-02
9225.00000 1.073000e-02
9230.00000 1.061000e-02
9235.00000 1.049000e-02
9240.00000 1.037000e-02
9245.00000 1.027000e-02
9250.00000 1.016000e-02
9255.00000 1.005000e-02
9260.00000 9.940000e-03
9265.00000 9.830000e-03
9270.00000 9.720000e-03
9275.00000 9.610000e-03
9280.00000 9.510000e-03
9290.00000 9.320000e-03
9295.00000 9.210000e-03
9305.00000 9.010000e-03
9310.00000 8.910000e-03
9315.00000 8.810000e-03
9325.00000 8.630000e-03
9335.00000 8.460000e-03
9345.00000 8.280000e-03
9355.00000 8.100000e-03
9365.00000 7.920000e-03
9375.00000 7.750000e-03
9385.00000 7.590000e-03
9395.00000 7.430000e-03
9405.00000 7.280000e-03
9415.00000 7.130000e-03
9425.00000 6.970000e-03
9435.00000 6.830000e-03
9445.00000 6.690000e-03
9455.00000 6.560000e-03
9465.00000 6.410000e-03
9475.00000 6.280000e-03
9485.00000 6.150000e-03
9495.00000 6.030000e-03
9505.00000 5.900000e-03
9515.00000 5.770000e-03
9525.00000 5.660000e-03
9535.00000 5.540000e-03
9550.00000 5.390000e-03
9560.00000 5.270000e-03
9570.00000 5.150000e-03
9585.00000 5.010000e-03
9595.00000 4.910000e-03
9605.00000 4.800000e-03
9620.00000 4.680000e-03
9630.00000 4.570000e-03
9645.00000 4.440000e-03
9660.00000 4.300000e-03
9675.00000 4.190000e-03
9690.00000 4.080000e-03
9705.00000 3.940000e-03
9720.00000 3.830000e-03
9735.00000 3.730000e-03
9750.00000 3.630000e-03
9765.00000 3.520000e-03
9780.00000 3.420000e-03
9800.00000 3.300000e-03
9820.00000 3.160000e-03
9840.00000 3.060000e-03
9865.00000 2.920000e-03
9890.00000 2.810000e-03
9910.00000 2.690000e-03
9940.00000 2.580000e-03
9965.00000 2.460000e-03
9985.00000 2.360000e-03
10020.00000 2.240000e-03
10045.00000 2.140000e-03
10075.00000 2.040000e-03
10105.00000 1.940000e-03
10140.00000 1.840000e-03
10175.00000 1.730000e-03
10220.00000 1.630000e-03
10265.00000 1.520000e-03
10315.00000 1.420000e-03
10365.00000 1.320000e-03
10420.00000 1.220000e-03
10485.00000 1.120000e-03
10570.00000 1.020000e-03
10645.00000 9.200000e-04
10775.00000 8.200000e-04
10915.00000 7.200000e-04
11130.00000 6.200000e-04
11385.00000 5.200000e-04
12000.00000 4.200000e-04
