#  Table f606w_sys.tab  Mon 11:02:25 21-Aug-95
#      WAVELENGTH      THROUGHPUT
#       angstroms                
         4002.226     1.989491E-7
          4008.18     2.088414E-7
         4014.143     1.971134E-7
         4020.117     1.755224E-7
         4026.101     1.372381E-7
          4032.09     1.050282E-7
         4038.089     8.416780E-8
         4044.099     8.251511E-8
         4050.113     9.009678E-8
         4056.141     1.115669E-7
         4062.178     1.266782E-7
         4068.221     1.304949E-7
         4074.274     1.204998E-7
         4080.337     1.052555E-7
         4086.408     9.879392E-8
         4092.487     8.854645E-8
         4098.578     7.281949E-8
         4104.676     6.021100E-8
         4110.783     5.172546E-8
           4116.9     6.488068E-8
         4123.025     7.986490E-8
         4129.162     9.673370E-8
         4135.305     9.412041E-8
         4141.457     8.918988E-8
         4147.619     8.672512E-8
         4153.792     8.962863E-8
         4159.971     9.590515E-8
         4166.163     1.022187E-7
          4172.36     1.018147E-7
         4178.568     9.048419E-8
         4184.785     7.063974E-8
         4191.015     5.120061E-8
         4197.248     4.704503E-8
         4203.495     4.834727E-8
         4209.749     5.397064E-8
         4216.011     4.043121E-8
         4222.284     2.831861E-8
         4228.568     2.016720E-8
         4234.859     1.801714E-8
         4241.162     1.771532E-8
         4247.471     1.774108E-8
          4253.79     1.776688E-8
         4260.119     1.779270E-8
         4266.461     1.781817E-8
         4272.809     1.784366E-8
         4279.166     1.786919E-8
         4285.532     1.789441E-8
         4291.908     1.791961E-8
         4298.295     1.794482E-8
         4304.692     1.796979E-8
         4311.094     1.799469E-8
         4317.511     1.801962E-8
         4323.934     1.804456E-8
         4330.367     1.806952E-8
         4336.812     1.809449E-8
         4343.266     1.811931E-8
         4349.728     1.814397E-8
         4356.199     1.816830E-8
          4362.68     1.993962E-8
          4369.17     2.420363E-8
         4375.673     1.817549E-7
         4382.185     1.079128E-6
         4388.705     3.402688E-6
         4395.234     6.885597E-6
         4401.775     1.025885E-5
         4408.322     1.253846E-5
         4414.885     1.334119E-5
         4421.453     1.322288E-5
         4428.031     1.165240E-5
         4434.622     9.367757E-6
         4441.216     6.798321E-6
         4447.826     4.324895E-6
         4454.446     2.454902E-6
         4461.073     1.041367E-6
          4467.71     4.667489E-7
         4474.359     1.937931E-7
         4481.014     9.553688E-8
         4487.683     8.311093E-8
         4494.361     7.753804E-8
         4501.048     7.549904E-8
         4507.744     7.277167E-8
         4514.451     8.099521E-8
         4521.169     9.441423E-8
         4527.898     1.054241E-7
         4534.635     1.101449E-7
         4541.381     1.108182E-7
         4548.137     1.069301E-7
         4554.904     9.777879E-8
         4561.683     8.836237E-8
         4568.472     8.450930E-8
         4575.269     9.550114E-8
         4582.076     1.128188E-7
         4588.893     1.345514E-7
         4595.722     1.608146E-7
         4602.562     2.337874E-7
         4609.409     3.843066E-7
         4616.267     1.026011E-6
         4623.135     2.592046E-6
         4630.015     5.239635E-6
         4636.903     1.549558E-5
         4643.805     4.080108E-5
         4650.713     8.723785E-5
         4657.632     2.093810E-4
         4664.562     4.674386E-4
         4671.504     8.512506E-4
         4678.457     0.001429446
         4685.414     0.002580669
         4692.388     0.003910685
         4699.369     0.005257479
         4706.363     0.006622418
         4713.367     0.008004879
         4720.377     0.009483505
         4727.402       0.0122827
         4734.435      0.01489721
         4741.479      0.01742432
         4748.536      0.02003103
           4755.6      0.02289398
         4762.678      0.02610794
         4769.763       0.0297242
         4776.859      0.03371075
         4783.969      0.03805327
         4791.083      0.04258393
         4798.214      0.04705777
         4805.355      0.05117226
         4812.504      0.05474044
         4819.667      0.05756913
         4826.834      0.05963324
         4834.018      0.06097403
         4841.213      0.06172696
         4848.415        0.062101
         4855.628      0.06223889
         4862.853      0.06227868
         4870.087      0.06239853
         4877.335      0.06260108
         4884.594      0.06296105
         4891.861      0.06350458
         4899.139      0.06427059
         4906.427      0.06517866
         4913.729       0.0662187
         4921.042      0.06732929
         4928.364      0.06854226
         4935.696      0.06976812
         4943.039      0.07094365
         4950.396      0.07202806
         4957.763      0.07300051
         4965.139      0.07387954
         4972.526      0.07460125
         4979.924      0.07520597
         4987.333      0.07568511
         4994.755      0.07606944
         5002.189       0.0764453
         5009.631      0.07688678
         5017.084       0.0773656
         5024.548      0.07787299
         5032.026      0.07844551
         5039.515      0.07914083
          5047.01      0.08000216
         5054.521      0.08093691
         5062.041      0.08200942
         5069.575      0.08319174
          5077.12      0.08448476
          5084.67      0.08581218
         5092.238      0.08719186
         5099.814      0.08858256
         5107.401      0.08991821
         5115.002      0.09113666
         5122.609      0.09216823
         5130.233      0.09308403
         5137.869      0.09374469
         5145.513       0.0941707
          5153.17      0.09440182
         5160.834      0.09435418
         5168.515      0.09415352
         5176.208      0.09370511
         5183.908      0.09306222
         5191.621       0.0924175
         5199.344      0.09177158
         5207.083      0.09106271
         5214.832      0.09027875
          5222.59      0.08967514
          5230.36      0.08926734
         5238.142      0.08902083
         5245.935      0.08890802
         5253.742      0.08890317
         5261.562      0.08907264
         5269.386      0.08960683
         5277.229      0.09043661
          5285.08      0.09142361
         5292.945      0.09249318
         5300.823      0.09373929
         5308.707      0.09528793
         5316.607      0.09707481
         5324.517      0.09896894
         5332.438       0.1007942
         5340.375       0.1027287
          5348.32       0.1046644
          5356.28       0.1066298
         5364.249       0.1084887
         5372.229       0.1101914
         5380.225       0.1116374
         5388.226       0.1129082
         5396.245         0.11395
         5404.276       0.1147603
         5412.316        0.115332
         5420.372       0.1157048
         5428.433       0.1159877
         5436.512       0.1160819
         5444.603       0.1160477
         5452.703       0.1159707
         5460.815       0.1158587
         5468.939        0.115845
         5477.076       0.1159044
          5485.23       0.1160678
         5493.391       0.1163598
         5501.563       0.1167268
         5509.749       0.1173006
         5517.946        0.118015
         5526.158       0.1189312
         5534.382       0.1199585
         5542.616       0.1210549
         5550.862       0.1222345
         5559.121       0.1235745
         5567.394       0.1248892
          5575.68       0.1262182
         5583.975       0.1274235
         5592.283       0.1284816
         5600.603       0.1294066
         5608.935       0.1299286
         5617.282       0.1302139
         5625.643       0.1302484
         5634.012       0.1300386
         5642.394        0.129629
         5650.789         0.12895
         5659.199       0.1281251
         5667.621       0.1271529
          5676.05       0.1260917
         5684.498       0.1248613
         5692.955       0.1236812
         5701.424       0.1230279
         5709.913       0.1220513
         5718.404       0.1212231
         5726.915        0.120387
         5735.435       0.1197097
         5743.968       0.1192049
         5752.517       0.1190474
         5761.072       0.1191419
         5769.649       0.1194518
         5778.233       0.1198318
          5786.83       0.1204398
         5795.442       0.1212773
         5804.061       0.1223901
         5812.699       0.1237485
          5821.35       0.1251853
         5830.011        0.126608
         5838.684       0.1281794
         5847.371       0.1298502
          5856.07       0.1314902
         5864.789       0.1331125
         5873.514        0.134571
         5882.252       0.1359575
         5891.003         0.13724
         5899.768       0.1383563
         5908.548       0.1392578
         5917.342       0.1399118
         5926.146       0.1403517
         5934.962        0.140592
         5943.792       0.1407374
         5952.638       0.1406503
         5961.497       0.1404625
         5970.366       0.1402258
         5979.249       0.1398711
         5988.144        0.139504
         5997.053       0.1391408
         6005.981       0.1387913
         6014.917       0.1383722
         6023.866       0.1379681
         6032.828        0.137598
         6041.803       0.1373845
         6050.795       0.1374304
           6059.8       0.1376437
         6068.813       0.1379851
         6077.844       0.1383238
         6086.887       0.1387203
         6095.942       0.1392595
         6105.018       0.1399364
         6114.098       0.1406881
         6123.197       0.1414546
         6132.307       0.1421324
          6141.43       0.1428163
         6150.574       0.1434123
         6159.717        0.143971
         6168.888        0.144339
         6178.066       0.1445948
         6187.257        0.144663
         6196.466       0.1446034
         6205.681       0.1444262
         6214.917       0.1441113
         6224.167       0.1436078
         6233.427       0.1430312
           6242.7        0.142337
         6251.988       0.1415613
         6261.292       0.1407205
         6270.611       0.1399159
          6279.94       0.1390319
         6289.283       0.1382766
          6298.64       0.1374944
         6308.011       0.1368193
         6317.402       0.1361995
         6326.801       0.1357875
         6336.214       0.1354945
          6345.64       0.1353611
         6355.081       0.1353289
         6364.539       0.1353562
         6374.012       0.1355646
         6383.494        0.135939
         6392.991       0.1364085
         6402.502       0.1370227
         6412.031       0.1376721
         6421.571       0.1383103
         6431.128       0.1389018
         6440.692       0.1396364
         6450.278       0.1403333
         6459.874       0.1410123
         6469.488       0.1416049
         6479.117       0.1421219
         6488.752       0.1423949
          6498.41       0.1426082
         6508.078        0.142432
         6517.764        0.141975
          6527.46       0.1408683
         6537.171       0.1408754
           6546.9       0.1401109
         6556.641       0.1392487
         6566.399       0.1383588
         6576.168       0.1373582
         6585.952       0.1362619
          6595.75       0.1352679
         6605.566       0.1343378
         6615.394       0.1335543
         6625.239       0.1328105
         6635.092         0.13213
         6644.967       0.1314708
         6654.857       0.1309005
         6664.757       0.1305127
         6674.677       0.1303073
         6684.603        0.130293
         6694.552       0.1303533
         6704.515       0.1304192
          6714.49       0.1304968
         6724.479       0.1305203
         6734.483        0.130582
         6744.506       0.1304086
         6754.541       0.1301065
         6764.593       0.1295231
         6774.657       0.1286018
         6784.736       0.1273569
          6794.83       0.1256238
         6804.943       0.1234225
          6815.07       0.1206253
         6825.209       0.1173552
         6835.364       0.1136539
         6845.533       0.1099154
         6855.721       0.1059516
          6865.92       0.1018194
         6876.139      0.09756363
         6886.369      0.09322434
         6896.614      0.08898039
         6906.875      0.08490378
         6917.154      0.08120825
         6927.449      0.07800171
         6937.751        0.075327
         6948.076      0.07294669
         6958.414      0.07087873
          6968.77      0.06899611
         6979.141      0.06757215
         6989.521      0.06676481
         6999.923       0.0666495
         7010.337      0.06724676
         7020.771      0.06850276
         7031.211      0.07035131
         7041.676      0.07282083
         7052.156      0.07605543
         7062.648      0.08039307
         7073.155      0.08609218
         7083.682      0.09289939
         7094.217       0.1001601
         7104.775       0.1064741
         7115.349       0.1100811
         7125.935       0.1089354
         7136.537       0.1012096
         7147.154      0.08771858
         7157.791      0.07104577
         7168.444      0.05485019
         7179.108      0.04141293
         7189.789      0.03082033
         7200.486      0.02292069
         7211.202      0.01714077
         7221.931      0.01297075
         7232.679     0.009919479
         7243.439     0.007676349
         7254.216     0.006010424
         7265.008      0.00474595
          7275.82     0.003767323
         7286.649     0.003019944
         7297.485     0.002327424
         7308.346      0.00192142
         7319.219     0.001597942
         7330.112     0.001336851
         7341.022     0.001131739
         7351.939     0.001002426
         7362.881     8.517609E-4
         7373.835     7.266700E-4
         7384.806     6.228588E-4
         7395.796     5.365749E-4
         7406.799     4.643890E-4
         7417.819     4.033240E-4
         7428.858     3.510680E-4
         7439.911     3.063626E-4
         7450.983     2.687720E-4
         7462.064     2.366411E-4
          7473.17     2.091712E-4
         7484.292     1.856741E-4
         7495.427     1.653439E-4
